File: data/SEM_Raman_Test/KZPd_180413-1-20/413-1_1(NucDens).csv
 ,Area,Mean,Min,Max
1,37078.772,255,255,255
2,1.097,255,255,255
3,1.337,255,255,255
4,1.303,255,255,255
5,1.337,255,255,255
6,1.029,255,255,255
7,138.237,255,255,255
8,1.715,255,255,255