File: data/SEM_Raman_Data/KZPd_171010-2/KZPd_171010-2_Raman1.txt
672.793	287
686.818	285
700.825	238
714.807	247
728.768	230
742.707	216
756.623	212
770.519	225
784.394	226
798.246	224
812.076	216
825.885	244
839.673	214
853.44	219
867.186	227
880.909	229
894.612	214
908.293	203
921.953	225
935.592	354
949.21	555
962.805	570
976.3822	610
989.936	523
1003.47	284
1016.98	247
1030.48	170
1043.95	155
1057.4	150
1070.83	127
1084.24	138
1097.63	146
1111	145
1124.35	142
1137.67	163
1150.98	128
1164.27	136
1177.54	115
1190.78	131
1204.01	131
1217.22	115
1230.4	116
1243.57	124
1256.71	130
1269.84	118
1282.95	121
1296.03	112
1309.1	118
1322.15	124
1335.18	150
1348.18	176
1361.17	133
1374.14	130
1387.09	109
1400.02	100
1412.93	111
1425.82	90
1438.69	105
1451.54	90
1464.37	87
1477.19	115
1489.98	117
1502.75	118
1515.51	106
1528.25	122
1540.96	108
1553.66	119
1566.34	154
1579	355
1591.64	444
1604.27	153
1616.871	119
1629.46	106
1642.02	92
1654.57	94
1667.1	80
1679.61	98
1692.1	80
1704.58	76
1717.03	77
1729.47	72
1741.89	75
1754.29	62
1766.67	91
1779.03	78
1791.379	73
1803.7	77
1816.01	74
1828.31	76
1840.58	70
1852.83	74
1865.07	77
1877.29	71
1889.49	71
1901.67	71
1913.84	76
1925.98	69
1938.11	73
1950.23	61
1962.32	73
1974.4	70
1986.46	76
1998.498	74
2010.52	68
2022.528	56
2034.52	67
2046.49	67
2058.44	63
2070.38	52
2082.3	67
2094.2	68
2106.09	64
2117.95	64
2129.804	73
2141.64	66
2153.46	68
2165.25	69
2177.04	51
2188.8	61
2200.551	66
2212.28	59
2224	65
2235.69	74
2247.38	65
2259.04	56
2270.69	58
2282.32	69
2293.93	62
2305.53	59
2317.11	71
2328.676	55
2340.23	52
2351.76	58
2363.27	65
2374.77	70
2386.25	61
2397.72	72
2409.17	68
2420.6	70
2432.02	84
2443.42	90
2454.8	94
2466.17	90
2477.53	79
2488.86	84
2500.18	66
2511.49	62
2522.78	78
2534.05	62
2545.3	56
2556.54	71
2567.77	70
2578.978	77
2590.17	76
2601.35	78
2612.51	99
2623.658	139
2634.79	193
2645.9	339
2657	572
2668.09	852
2679.15	896
2690.21	554
2701.24	301
2712.27	181
2723.27	118
2734.26	96
2745.24	65
2756.2	66
2767.15	86
2778.08	70
2788.991	61
2799.89	45
2810.77	55
2821.65	58
2832.5	60
2843.34	62
2854.16	53
2864.97	59
2875.77	58
2886.55	58
2897.311	56
2908.061	65
2918.8	60
2929.52	62
2940.22	58
2950.91	51
2961.59	40
2972.25	46
2982.9	52
2993.53	57
3004.14	49
3014.75	50
3025.34	56
3035.91	55
3046.47	49
3057.01	50
3067.55	47
3078.06	53
3088.563	53
3099.05	49
3109.52	44
3119.98	49
3130.427	51
3140.86	42
3151.27	41
3161.67	50
3172.06	45
3182.437	47
3192.8	48
3203.14	61
3213.47	47
3223.791	62
3234.1	88
3244.38	78
3254.66	63
3264.92	65
3275.17	41
3285.41	52
3295.63	44
3305.83	49
3316.03	48
3326.21	43
3336.37	47
3346.52	43
3356.66	42
3366.79	42
3376.9	30
3386.99	54
3397.08	44
3407.15	48
3417.21	50
3427.25	43
3437.28	42
3447.3	39
3457.3	31
3467.29	39
3477.27	44
3487.23	36
3497.18	45
3507.12	36
3517.04	40
3526.95	37
3536.85	39
3546.73	43
3556.61	36
3566.46	45
3576.31	50
3586.14	41
3595.96	45
3605.77	32
3615.56	34
3625.34	40
3635.11	31
3644.86	42
3654.6	36
3661.9	33