File: data/SEM_Raman_Data/KZPd_180416-1/sample.txt
672.793	3216
686.818	2887
700.825	2674
714.807	2499
728.768	2441
742.707	2332
756.623	2375
770.519	2345
784.394	2398
798.246	2374
812.076	2391
825.885	2441
839.673	2254
853.44	2236
867.186	2222
880.909	2174
894.612	2233
908.293	2268
921.953	2404
935.592	4482
949.21	6021
962.805	6071
976.3822	5968
989.936	4929
1003.47	2800
1016.98	2197
1030.48	1748
1043.95	1462
1057.4	1388
1070.83	1387
1084.24	1295
1097.63	1298
1111	1277
1124.35	1244
1137.67	1268
1150.98	1204
1164.27	1233
1177.54	1170
1190.78	1166
1204.01	1142
1217.22	1150
1230.4	1068
1243.57	1086
1256.71	1066
1269.84	1065
1282.95	1071
1296.03	1053
1309.1	1055
1322.15	1056
1335.18	1079
1348.18	1050
1361.17	1058
1374.14	1015
1387.09	1042
1400.02	953
1412.93	974
1425.82	965
1438.69	941
1451.54	938
1464.37	874
1477.19	836
1489.98	920
1502.75	918
1515.51	925
1528.25	916
1540.96	864
1553.66	947
1566.34	1183
1579	2206
1591.64	9047
1604.27	1383
1616.871	989
1629.46	891
1642.02	830
1654.57	758
1667.1	770
1679.61	777
1692.1	742
1704.58	704
1717.03	674
1729.47	688
1741.89	685
1754.29	668
1766.67	658
1779.03	654
1791.379	713
1803.7	693
1816.01	676
1828.31	659
1840.58	707
1852.83	682
1865.07	684
1877.29	664
1889.49	695
1901.67	599
1913.84	622
1925.98	622
1938.11	607
1950.23	610
1962.32	593
1974.4	603
1986.46	630
1998.498	625
2010.52	577
2022.528	603
2034.52	596
2046.49	576
2058.44	569
2070.38	560
2082.3	528
2094.2	519
2106.09	536
2117.95	531
2129.804	503
2141.64	524
2153.46	499
2165.25	512
2177.04	485
2188.8	536
2200.551	510
2212.28	501
2224	515
2235.69	483
2247.38	499
2259.04	543
2270.69	540
2282.32	493
2293.93	473
2305.53	453
2317.11	480
2328.676	479
2340.23	480
2351.76	480
2363.27	468
2374.77	489
2386.25	503
2397.72	508
2409.17	523
2420.6	492
2432.02	569
2443.42	707
2454.8	850
2466.17	714
2477.53	618
2488.86	577
2500.18	554
2511.49	513
2522.78	478
2534.05	492
2545.3	522
2556.54	526
2567.77	532
2578.978	546
2590.17	580
2601.35	623
2612.51	718
2623.658	894
2634.79	1235
2645.9	2170
2657	4129
2668.09	7747
2679.15	10143
2690.21	6821
2701.24	3233
2712.27	1685
2723.27	1071
2734.26	744
2745.24	669
2756.2	590
2767.15	488
2778.08	484
2788.991	452
2799.89	421
2810.77	405
2821.65	423
2832.5	403
2843.34	422
2854.16	391
2864.97	424
2875.77	391
2886.55	371
2897.311	374
2908.061	344
2918.8	372
2929.52	340
2940.22	347
2950.91	328
2961.59	359
2972.25	354
2982.9	306
2993.53	344
3004.14	355
3014.75	331
3025.34	327
3035.91	302
3046.47	349
3057.01	334
3067.55	332
3078.06	356
3088.563	365
3099.05	318
3109.52	296
3119.98	312
3130.427	321
3140.86	331
3151.27	305
3161.67	312
3172.06	302
3182.437	296
3192.8	310
3203.14	323
3213.47	317
3223.791	356
3234.1	506
3244.38	865
3254.66	561
3264.92	330
3275.17	287
3285.41	272
3295.63	249
3305.83	308
3316.03	275
3326.21	257
3336.37	270
3346.52	265
3356.66	276
3366.79	265
3376.9	263
3386.99	248
3397.08	249
3407.15	273
3417.21	264
3427.25	275
3437.28	280
3447.3	266
3457.3	266
3467.29	266
3477.27	248
3487.23	240
3497.18	234
3507.12	257
3517.04	234
3526.95	243
3536.85	239
3546.73	242
3556.61	240
3566.46	254
3576.31	238
3586.14	251
3595.96	245
3605.77	239
3615.56	266
3625.34	237
3635.11	226
3644.86	231
3654.6	218
3661.9	214