File: data/SEM_Raman_Data/KZPd_171010-1/KZPd_171010-1_Raman1.txt
672.793	302
686.818	283
700.825	244
714.807	245
728.768	229
742.707	233
756.623	250
770.519	201
784.394	230
798.246	210
812.076	235
825.885	234
839.673	232
853.44	212
867.186	196
880.909	195
894.612	226
908.293	211
921.953	227
935.592	333
949.21	596
962.805	585
976.3822	578
989.936	562
1003.47	306
1016.98	228
1030.48	188
1043.95	163
1057.4	142
1070.83	142
1084.24	145
1097.63	131
1111	145
1124.35	144
1137.67	129
1150.98	131
1164.27	141
1177.54	148
1190.78	124
1204.01	118
1217.22	108
1230.4	111
1243.57	131
1256.71	113
1269.84	105
1282.95	113
1296.03	112
1309.1	120
1322.15	129
1335.18	169
1348.18	251
1361.17	146
1374.14	124
1387.09	106
1400.02	111
1412.93	112
1425.82	116
1438.69	116
1451.54	122
1464.37	103
1477.19	111
1489.98	116
1502.75	103
1515.51	105
1528.25	116
1540.96	103
1553.66	124
1566.34	143
1579	262
1591.64	408
1604.27	169
1616.871	114
1629.46	129
1642.02	87
1654.57	91
1667.1	83
1679.61	99
1692.1	97
1704.58	79
1717.03	74
1729.47	87
1741.89	91
1754.29	75
1766.67	84
1779.03	101
1791.379	72
1803.7	95
1816.01	75
1828.31	75
1840.58	85
1852.83	77
1865.07	79
1877.29	81
1889.49	79
1901.67	75
1913.84	72
1925.98	72
1938.11	80
1950.23	76
1962.32	75
1974.4	75
1986.46	76
1998.498	69
2010.52	67
2022.528	69
2034.52	83
2046.49	65
2058.44	62
2070.38	69
2082.3	70
2094.2	77
2106.09	75
2117.95	64
2129.804	70
2141.64	57
2153.46	66
2165.25	73
2177.04	72
2188.8	68
2200.551	65
2212.28	65
2224	60
2235.69	78
2247.38	59
2259.04	83
2270.69	54
2282.32	69
2293.93	58
2305.53	64
2317.11	55
2328.676	69
2340.23	65
2351.76	55
2363.27	61
2374.77	79
2386.25	72
2397.72	72
2409.17	67
2420.6	71
2432.02	78
2443.42	85
2454.8	110
2466.17	97
2477.53	97
2488.86	80
2500.18	77
2511.49	72
2522.78	69
2534.05	75
2545.3	79
2556.54	64
2567.77	66
2578.978	68
2590.17	70
2601.35	77
2612.51	81
2623.658	101
2634.79	124
2645.9	177
2657	272
2668.09	662
2679.15	1124
2690.21	959
2701.24	600
2712.27	345
2723.27	219
2734.26	143
2745.24	111
2756.2	94
2767.15	70
2778.08	76
2788.991	72
2799.89	72
2810.77	64
2821.65	57
2832.5	74
2843.34	65
2854.16	58
2864.97	62
2875.77	68
2886.55	66
2897.311	55
2908.061	71
2918.8	64
2929.52	64
2940.22	58
2950.91	63
2961.59	61
2972.25	66
2982.9	45
2993.53	52
3004.14	53
3014.75	48
3025.34	52
3035.91	44
3046.47	50
3057.01	59
3067.55	52
3078.06	49
3088.563	44
3099.05	48
3109.52	62
3119.98	43
3130.427	37
3140.86	45
3151.27	52
3161.67	46
3172.06	52
3182.437	45
3192.8	51
3203.14	45
3213.47	56
3223.791	54
3234.1	68
3244.38	89
3254.66	121
3264.92	69
3275.17	56
3285.41	45
3295.63	46
3305.83	44
3316.03	50
3326.21	39
3336.37	50
3346.52	46
3356.66	55
3366.79	46
3376.9	47
3386.99	38
3397.08	35
3407.15	47
3417.21	35
3427.25	43
3437.28	37
3447.3	36
3457.3	52
3467.29	49
3477.27	48
3487.23	47
3497.18	40
3507.12	46
3517.04	47
3526.95	48
3536.85	43
3546.73	38
3556.61	39
3566.46	48
3576.31	45
3586.14	44
3595.96	40
3605.77	47
3615.56	30
3625.34	49
3635.11	37
3644.86	43
3654.6	41
3661.9	33