File: data/SEM_Raman_Test/KZPd_180321-1-20/321-1_1(%Cov).csv
 ,Label,Area,Mean,Min,Max
1,,4177610.947,255,255,255
2,,221.893,255,255,255
3,,351.331,255,255,255
4,,129.438,255,255,255
5,,107.249,255,255,255
6,,114.645,255,255,255
7,,166.420,255,255,255
8,Mean,596957.418,255,255,255
9,SD,1578919.797,0,0,0
10,Min,107.249,255,255,255
11,Max,4177610.947,255,255,255