File: data/SEM_Raman_Data/KZPd_171009-4/20171009-4 on SiO2_26.txt
672.793	283
686.818	269
700.825	272
714.807	230
728.768	225
742.707	207
756.623	193
770.519	216
784.394	199
798.246	208
812.076	217
825.885	230
839.673	202
853.44	200
867.186	222
880.909	224
894.612	206
908.293	212
921.953	207
935.592	284
949.21	537
962.805	542
976.3822	521
989.936	544
1003.47	316
1016.98	228
1030.48	174
1043.95	150
1057.4	139
1070.83	119
1084.24	152
1097.63	118
1111	119
1124.35	132
1137.67	107
1150.98	128
1164.27	118
1177.54	123
1190.78	119
1204.01	119
1217.22	111
1230.4	112
1243.57	103
1256.71	108
1269.84	114
1282.95	113
1296.03	115
1309.1	109
1322.15	117
1335.18	116
1348.18	134
1361.17	108
1374.14	101
1387.09	101
1400.02	106
1412.93	99
1425.82	103
1438.69	85
1451.54	82
1464.37	103
1477.19	92
1489.98	104
1502.75	101
1515.51	107
1528.25	95
1540.96	100
1553.66	91
1566.34	111
1579	153
1591.64	519
1604.27	240
1616.871	90
1629.46	106
1642.02	94
1654.57	82
1667.1	77
1679.61	81
1692.1	83
1704.58	85
1717.03	72
1729.47	76
1741.89	75
1754.29	71
1766.67	76
1779.03	61
1791.379	84
1803.7	59
1816.01	74
1828.31	69
1840.58	66
1852.83	80
1865.07	80
1877.29	85
1889.49	77
1901.67	67
1913.84	66
1925.98	70
1938.11	67
1950.23	64
1962.32	66
1974.4	74
1986.46	65
1998.498	58
2010.52	80
2022.528	66
2034.52	79
2046.49	70
2058.44	49
2070.38	81
2082.3	56
2094.2	59
2106.09	64
2117.95	60
2129.804	65
2141.64	71
2153.46	56
2165.25	51
2177.04	53
2188.8	68
2200.551	67
2212.28	53
2224	53
2235.69	65
2247.38	56
2259.04	68
2270.69	51
2282.32	63
2293.93	57
2305.53	63
2317.11	55
2328.676	44
2340.23	60
2351.76	60
2363.27	62
2374.77	60
2386.25	55
2397.72	64
2409.17	51
2420.6	59
2432.02	61
2443.42	78
2454.8	80
2466.17	98
2477.53	82
2488.86	70
2500.18	65
2511.49	67
2522.78	47
2534.05	55
2545.3	62
2556.54	59
2567.77	55
2578.978	67
2590.17	58
2601.35	66
2612.51	75
2623.658	66
2634.79	99
2645.9	136
2657	205
2668.09	445
2679.15	781
2690.21	950
2701.24	596
2712.27	266
2723.27	139
2734.26	115
2745.24	79
2756.2	79
2767.15	66
2778.08	72
2788.991	56
2799.89	49
2810.77	61
2821.65	49
2832.5	53
2843.34	59
2854.16	61
2864.97	56
2875.77	51
2886.55	48
2897.311	41
2908.061	53
2918.8	50
2929.52	51
2940.22	45
2950.91	54
2961.59	44
2972.25	57
2982.9	47
2993.53	54
3004.14	55
3014.75	43
3025.34	46
3035.91	55
3046.47	40
3057.01	56
3067.55	40
3078.06	52
3088.563	47
3099.05	43
3109.52	47
3119.98	44
3130.427	51
3140.86	49
3151.27	56
3161.67	50
3172.06	38
3182.437	40
3192.8	59
3203.14	51
3213.47	47
3223.791	34
3234.1	49
3244.38	56
3254.66	104
3264.92	69
3275.17	51
3285.41	40
3295.63	43
3305.83	37
3316.03	41
3326.21	46
3336.37	30
3346.52	28
3356.66	30
3366.79	36
3376.9	36
3386.99	41
3397.08	37
3407.15	43
3417.21	36
3427.25	30
3437.28	43
3447.3	38
3457.3	42
3467.29	34
3477.27	43
3487.23	36
3497.18	47
3507.12	47
3517.04	46
3526.95	35
3536.85	42
3546.73	45
3556.61	44
3566.46	35
3576.31	42
3586.14	34
3595.96	39
3605.77	41
3615.56	36
3625.34	35
3635.11	38
3644.86	32
3654.6	31
3661.9	34