File: data/SEM_Raman_Data/KZPd_180416-3/sample.txt
672.793	282
686.818	273
700.825	271
714.807	230
728.768	213
742.707	225
756.623	218
770.519	212
784.394	240
798.246	241
812.076	226
825.885	231
839.673	208
853.44	218
867.186	227
880.909	187
894.612	225
908.293	242
921.953	232
935.592	392
949.21	533
962.805	533
976.3822	536
989.936	432
1003.47	266
1016.98	214
1030.48	161
1043.95	148
1057.4	144
1070.83	144
1084.24	131
1097.63	153
1111	138
1124.35	111
1137.67	114
1150.98	121
1164.27	134
1177.54	116
1190.78	133
1204.01	122
1217.22	129
1230.4	121
1243.57	115
1256.71	120
1269.84	105
1282.95	110
1296.03	121
1309.1	138
1322.15	117
1335.18	149
1348.18	130
1361.17	126
1374.14	118
1387.09	122
1400.02	123
1412.93	111
1425.82	114
1438.69	98
1451.54	99
1464.37	104
1477.19	93
1489.98	115
1502.75	97
1515.51	106
1528.25	102
1540.96	104
1553.66	114
1566.34	127
1579	280
1591.64	454
1604.27	134
1616.871	106
1629.46	98
1642.02	107
1654.57	106
1667.1	88
1679.61	102
1692.1	74
1704.58	67
1717.03	87
1729.47	85
1741.89	91
1754.29	80
1766.67	77
1779.03	84
1791.379	84
1803.7	80
1816.01	71
1828.31	92
1840.58	89
1852.83	81
1865.07	81
1877.29	96
1889.49	90
1901.67	65
1913.84	76
1925.98	81
1938.11	81
1950.23	80
1962.32	81
1974.4	74
1986.46	81
1998.498	83
2010.52	77
2022.528	73
2034.52	80
2046.49	70
2058.44	73
2070.38	68
2082.3	66
2094.2	81
2106.09	72
2117.95	71
2129.804	77
2141.64	70
2153.46	79
2165.25	73
2177.04	57
2188.8	70
2200.551	78
2212.28	57
2224	65
2235.69	71
2247.38	58
2259.04	70
2270.69	76
2282.32	67
2293.93	61
2305.53	67
2317.11	67
2328.676	67
2340.23	63
2351.76	65
2363.27	62
2374.77	76
2386.25	69
2397.72	71
2409.17	67
2420.6	75
2432.02	68
2443.42	84
2454.8	106
2466.17	95
2477.53	83
2488.86	81
2500.18	82
2511.49	81
2522.78	65
2534.05	61
2545.3	65
2556.54	75
2567.77	72
2578.978	69
2590.17	79
2601.35	68
2612.51	76
2623.658	76
2634.79	106
2645.9	154
2657	263
2668.09	626
2679.15	942
2690.21	729
2701.24	378
2712.27	201
2723.27	131
2734.26	88
2745.24	80
2756.2	70
2767.15	72
2778.08	64
2788.991	57
2799.89	64
2810.77	60
2821.65	57
2832.5	68
2843.34	62
2854.16	53
2864.97	48
2875.77	69
2886.55	53
2897.311	64
2908.061	54
2918.8	50
2929.52	70
2940.22	55
2950.91	48
2961.59	52
2972.25	48
2982.9	61
2993.53	44
3004.14	53
3014.75	55
3025.34	56
3035.91	51
3046.47	46
3057.01	47
3067.55	56
3078.06	48
3088.563	56
3099.05	56
3109.52	51
3119.98	55
3130.427	58
3140.86	54
3151.27	51
3161.67	49
3172.06	42
3182.437	57
3192.8	46
3203.14	50
3213.47	48
3223.791	47
3234.1	70
3244.38	100
3254.66	66
3264.92	57
3275.17	55
3285.41	49
3295.63	45
3305.83	40
3316.03	34
3326.21	43
3336.37	49
3346.52	45
3356.66	42
3366.79	35
3376.9	47
3386.99	51
3397.08	39
3407.15	59
3417.21	43
3427.25	41
3437.28	46
3447.3	46
3457.3	43
3467.29	44
3477.27	49
3487.23	42
3497.18	40
3507.12	37
3517.04	32
3526.95	42
3536.85	41
3546.73	40
3556.61	37
3566.46	38
3576.31	40
3586.14	42
3595.96	45
3605.77	44
3615.56	48
3625.34	38
3635.11	37
3644.86	38
3654.6	36
3661.9	38