File: data/SEM_Raman_Test/KZPd_180412-1-20/412-1_2(%Cov).csv
 ,Label,Area,Mean,Min,Max
1,,25583.863,255,255,255
2,,32.718,255,255,255
3,,15.620,255,255,255
4,,37.001,255,255,255
5,,241.027,255,255,255
6,,179.357,255,255,255
7,,10.524,255,255,255
8,,417.910,255,255,255
9,,19.572,255,255,255
10,,77.585,255,255,255
11,,129.173,255,255,255
12,,80.502,255,255,255
13,,403.840,255,255,255
14,,129.357,255,255,255
15,,36.558,255,255,255
16,Mean,1826.307,255,255,255
17,SD,6573.657,0,0,0
18,Min,10.524,255,255,255
19,Max,25583.863,255,255,255