File: data/SEM_Raman_Test/KZPd_180415-1-20/415-1_1(NucDens).csv
 ,Area,Mean,Min,Max
1,29905.202,118.662,58,150
2,6.659,138.821,105,150
3,4.400,139.182,111,150
4,9.334,139.315,109,150
5,4.310,137.986,113,150
6,2.229,142.027,118,150
7,3.954,139.368,114,150
8,11.623,137.803,95,150
9,6.332,138.732,104,150
10,3.508,138.644,102,150
11,2.170,140.151,111,150
12,2.259,138.632,119,150
13,11.326,128.963,82,150